»»»»»»»»»»»»»»»»»»»»»»»»»»»»»»»»»»»» Hysteresis ««««««««««««««««««««««««««««««««««««
»»»  Version:			4.6.11
»»»  Vision Version:		4.6.5 (R)
»»»  Vision Compiled:		7 December 2011
»»»  Driver Version:		4.6.17
»»»  Tester Name:		PPM21211-813
»»»  Tester S/N:		PPM21211-813                    
»»»  Internal Amp Type:		No Internal Amp
»»»  Internal Amp S/N:		100000
»»»  Execution Count:		0
»»»»»»»»»»»»»»»»»»»»»»»»»»»»»»»»»»»»»»»»»»««««««««««««««««««««««««««««««««««««««««««

Stored:				9/22/2023 - 16:17:15
Configured:			09/22/23 03:55:16 PM
Executed:			09/22/23 04:16:46 PM

»»»»»»»»»»»»»»»»»»»»»»»»»»»»»»»»»»» Sample Info ««««««««««««««««««««««««««««««««««««
Sample Name:			
Lot Name:			
Wafer Name:			
Die Row/Column:			0/0
Capacitor Number:		0
Sample Area (cm2):		9.46e-001
Sample Thickness (µm):		1.14e+003

Mux Loop Adjustment:		Disabled

Amplifier:			High Voltage (HVA)
HVI Channel/Port:		1/1
Drive Gain Factor:			1000.00r
Drive Voltage Limit:			4000.00r

»»»»»»»»»»»»»»»»»»»»»»»»»»»»»»»»»»» Tester Info «««««««««««««««««««««««««««««««««««
Tester Name:			PPM21211-813
Tester Serial Number:		PPM21211-813                    
Return Signal Amp. Level:	0.00019

»»»»»»»»»»»»»»»»»»»»»»»»»»»»»»»» Hysteresis Info ««««««««««««««««««««««««««««««««««
Task Name:			Hyst-2
Volts:				2272.00
Field:				20.00 (kV/cm)
Hysteresis Period (ms):		1.00e+002
Preset:				Enabled
Preset Delay (ms):		1.00e+002
Profile:			Standard Bipolar

»»»»»»»»»»»»»»»»»»»»»»»»»»»»»»»»»»»»»» Data «««««««««««««««««««««««««««««««««««««««
Points:				1017

Valid Data

Point		Time (ms)	Field (kV/cm)	Measured Polarization
   1		9.8500e-002	-0.0101		-5.1755
   2		1.9700e-001	0.0060		-5.1645
   3		2.9550e-001	0.0376		-5.1488
   4		3.9400e-001	0.0826		-5.1318
   5		4.9250e-001	0.1491		-5.1093
   6		5.9100e-001	0.1820		-5.0699
   7		6.8950e-001	0.2465		-5.0309
   8		7.8800e-001	0.3130		-4.9651
   9		8.8650e-001	0.3768		-4.8964
  10		9.8500e-001	0.4513		-4.8166
  11		1.0835e+000	0.5151		-4.7106
  12		1.1820e+000	0.5816		-4.5914
  13		1.2805e+000	0.6588		-4.4506
  14		1.3790e+000	0.7247		-4.2924
  15		1.4775e+000	0.7979		-4.1163
  16		1.5760e+000	0.8717		-3.9212
  17		1.6745e+000	0.9718		-3.7100
  18		1.7730e+000	1.0343		-3.4716
  19		1.8715e+000	1.1048		-3.2078
  20		1.9700e+000	1.1867		-2.9329
  21		2.0685e+000	1.2653		-2.6288
  22		2.1670e+000	1.3392		-2.2971
  23		2.2655e+000	1.4251		-1.9459
  24		2.3640e+000	1.4789		-1.5747
  25		2.4625e+000	1.5682		-1.1836
  26		2.5610e+000	1.6528		-0.7832
  27		2.6595e+000	1.7347		-0.3671
  28		2.7580e+000	1.8059		0.0524
  29		2.8565e+000	1.8865		0.4693
  30		2.9550e+000	1.9732		0.8799
  31		3.0535e+000	2.0517		1.2787
  32		3.1520e+000	2.1189		1.6685
  33		3.2505e+000	2.2156		2.0388
  34		3.3490e+000	2.2808		2.3989
  35		3.4475e+000	2.3728		2.7416
  36		3.5460e+000	2.4352		3.0691
  37		3.6445e+000	2.5185		3.3885
  38		3.7430e+000	2.6246		3.6854
  39		3.8415e+000	2.6783		3.9734
  40		3.9400e+000	2.7482		4.2559
  41		4.0385e+000	2.8409		4.5159
  42		4.1370e+000	2.9067		4.7645
  43		4.2355e+000	2.9913		5.0075
  44		4.3340e+000	3.0699		5.2366
  45		4.4325e+000	3.1458		5.4686
  46		4.5310e+000	3.2096		5.6828
  47		4.6295e+000	3.3023		5.8873
  48		4.7280e+000	3.3755		6.0849
  49		4.8265e+000	3.4648		6.2822
  50		4.9250e+000	3.5333		6.4595
  51		5.0235e+000	3.6139		6.6457
  52		5.1220e+000	3.6851		6.8213
  53		5.2205e+000	3.7845		6.9863
  54		5.3190e+000	3.8550		7.1424
  55		5.4175e+000	3.9302		7.3019
  56		5.5160e+000	4.0142		7.4613
  57		5.6145e+000	4.0880		7.6056
  58		5.7130e+000	4.1666		7.7481
  59		5.8115e+000	4.2445		7.8872
  60		5.9100e+000	4.3144		8.0149
  61		6.0085e+000	4.3923		8.1472
  62		6.1070e+000	4.4782		8.2698
  63		6.2055e+000	4.5756		8.3979
  64		6.3040e+000	4.6280		8.5175
  65		6.4025e+000	4.7193		8.6274
  66		6.5010e+000	4.7939		8.7445
  67		6.5995e+000	4.8718		8.8501
  68		6.6980e+000	4.9463		8.9591
  69		6.7965e+000	5.0316		9.0600
  70		6.8950e+000	5.1001		9.1644
  71		6.9935e+000	5.1693		9.2675
  72		7.0920e+000	5.2647		9.3654
  73		7.1905e+000	5.3392		9.4592
  74		7.2890e+000	5.4319		9.5533
  75		7.3875e+000	5.4964		9.6382
  76		7.4860e+000	5.5965		9.7328
  77		7.5845e+000	5.6562		9.8193
  78		7.6830e+000	5.7429		9.9058
  79		7.7815e+000	5.8114		9.9839
  80		7.8800e+000	5.9114		10.0662
  81		7.9785e+000	5.9685		10.1459
  82		8.0770e+000	6.0424		10.2244
  83		8.1755e+000	6.1351		10.3028
  84		8.2740e+000	6.2076		10.3716
  85		8.3725e+000	6.2761		10.4534
  86		8.4710e+000	6.3581		10.5226
  87		8.5695e+000	6.4494		10.5934
  88		8.6680e+000	6.5206		10.6562
  89		8.7665e+000	6.6086		10.7283
  90		8.8650e+000	6.6871		10.7953
  91		8.9635e+000	6.7617		10.8644
  92		9.0620e+000	6.8369		10.9247
  93		9.1605e+000	6.9115		10.9896
  94		9.2590e+000	6.9873		11.0498
  95		9.3575e+000	7.0700		11.1066
  96		9.4560e+000	7.1593		11.1707
  97		9.5545e+000	7.2372		11.2280
  98		9.6530e+000	7.2990		11.2801
  99		9.7515e+000	7.3775		11.3459
 100		9.8500e+000	7.4575		11.3976
 101		9.9485e+000	7.5609		11.4540
 102		1.0047e+001	7.6180		11.5113
 103		1.0146e+001	7.7039		11.5618
 104		1.0244e+001	7.7604		11.6220
 105		1.0342e+001	7.8678		11.6670
 106		1.0441e+001	7.9410		11.7204
 107		1.0540e+001	8.0115		11.7730
 108		1.0638e+001	8.1009		11.8163
 109		1.0736e+001	8.1794		11.8757
 110		1.0835e+001	8.2560		11.9232
 111		1.0934e+001	8.3211		11.9669
 112		1.1032e+001	8.4024		12.0139
 113		1.1131e+001	8.4870		12.0632
 114		1.1229e+001	8.5616		12.1077
 115		1.1328e+001	8.6334		12.1565
 116		1.1426e+001	8.7181		12.2031
 117		1.1525e+001	8.8034		12.2430
 118		1.1623e+001	8.8705		12.2909
 119		1.1722e+001	8.9538		12.3329
 120		1.1820e+001	9.0270		12.3800
 121		1.1919e+001	9.1150		12.4245
 122		1.2017e+001	9.1815		12.4695
 123		1.2116e+001	9.2647		12.5030
 124		1.2214e+001	9.3507		12.5480
 125		1.2313e+001	9.4212		12.5870
 126		1.2411e+001	9.5045		12.6231
 127		1.2509e+001	9.5918		12.6650
 128		1.2608e+001	9.6711		12.7011
 129		1.2707e+001	9.7369		12.7469
 130		1.2805e+001	9.8181		12.7864
 131		1.2903e+001	9.8934		12.8194
 132		1.3002e+001	9.9625		12.8610
 133		1.3101e+001	10.0566		12.9034
 134		1.3199e+001	10.1311		12.9344
 135		1.3297e+001	10.2177		12.9755
 136		1.3396e+001	10.2775		13.0107
 137		1.3495e+001	10.3648		13.0459
 138		1.3593e+001	10.4454		13.0765
 139		1.3692e+001	10.5200		13.1215
 140		1.3790e+001	10.5992		13.1541
 141		1.3889e+001	10.6791		13.1897
 142		1.3987e+001	10.7523		13.2199
 143		1.4086e+001	10.8336		13.2593
 144		1.4184e+001	10.9048		13.2924
 145		1.4283e+001	10.9814		13.3280
 146		1.4381e+001	11.0660		13.3645
 147		1.4480e+001	11.1479		13.3891
 148		1.4578e+001	11.2245		13.4269
 149		1.4677e+001	11.3125		13.4599
 150		1.4775e+001	11.3843		13.4901
 151		1.4874e+001	11.4663		13.5223
 152		1.4972e+001	11.5361		13.5537
 153		1.5070e+001	11.6093		13.5897
 154		1.5169e+001	11.6946		13.6203
 155		1.5268e+001	11.7718		13.6461
 156		1.5366e+001	11.8551		13.6831
 157		1.5464e+001	11.9323		13.7183
 158		1.5563e+001	12.0029		13.7446
 159		1.5662e+001	12.0895		13.7730
 160		1.5760e+001	12.1634		13.8065
 161		1.5858e+001	12.2722		13.8315
 162		1.5957e+001	12.3118		13.8595
 163		1.6055e+001	12.3958		13.8943
 164		1.6154e+001	12.4763		13.9219
 165		1.6253e+001	12.5563		13.9482
 166		1.6351e+001	12.6281		13.9817
 167		1.6450e+001	12.7188		14.0071
 168		1.6548e+001	12.7940		14.0347
 169		1.6647e+001	12.8659		14.0724
 170		1.6745e+001	12.9505		14.0932
 171		1.6843e+001	13.0264		14.1195
 172		1.6942e+001	13.1063		14.1552
 173		1.7041e+001	13.1889		14.1751
 174		1.7139e+001	13.2655		14.2031
 175		1.7238e+001	13.3441		14.2336
 176		1.7336e+001	13.4159		14.2548
 177		1.7435e+001	13.5005		14.2866
 178		1.7533e+001	13.5690		14.3083
 179		1.7631e+001	13.6550		14.3422
 180		1.7730e+001	13.7416		14.3634
 181		1.7828e+001	13.8122		14.3935
 182		1.7927e+001	13.8860		14.4122
 183		1.8026e+001	13.9780		14.4419
 184		1.8124e+001	14.0539		14.4707
 185		1.8223e+001	14.1480		14.4928
 186		1.8321e+001	14.2091		14.5233
 187		1.8419e+001	14.2823		14.5488
 188		1.8518e+001	14.3729		14.5687
 189		1.8616e+001	14.4435		14.5971
 190		1.8715e+001	14.5147		14.6239
 191		1.8814e+001	14.5966		14.6451
 192		1.8912e+001	14.6779		14.6743
 193		1.9011e+001	14.7652		14.7019
 194		1.9109e+001	14.8377		14.7240
 195		1.9208e+001	14.9216		14.7439
 196		1.9306e+001	14.9821		14.7723
 197		1.9404e+001	15.0674		14.7952
 198		1.9503e+001	15.1486		14.8118
 199		1.9602e+001	15.2198		14.8436
 200		1.9700e+001	15.2830		14.8661
 201		1.9799e+001	15.3817		14.8924
 202		1.9897e+001	15.4475		14.9102
 203		1.9996e+001	15.5261		14.9356
 204		2.0094e+001	15.6161		14.9568
 205		2.0192e+001	15.7020		14.9865
 206		2.0291e+001	15.7665		15.0039
 207		2.0390e+001	15.8478		15.0264
 208		2.0488e+001	15.9378		15.0535
 209		2.0587e+001	16.0070		15.0752
 210		2.0685e+001	16.0869		15.0934
 211		2.0784e+001	16.1695		15.1184
 212		2.0882e+001	16.2353		15.1439
 213		2.0980e+001	16.3273		15.1664
 214		2.1079e+001	16.4092		15.1863
 215		2.1177e+001	16.4851		15.2088
 216		2.1276e+001	16.5563		15.2325
 217		2.1375e+001	16.6376		15.2537
 218		2.1473e+001	16.7141		15.2733
 219		2.1572e+001	16.8001		15.3004
 220		2.1670e+001	16.8740		15.3157
 221		2.1769e+001	16.9593		15.3390
 222		2.1867e+001	17.0392		15.3619
 223		2.1965e+001	17.1326		15.3852
 224		2.2064e+001	17.1843		15.4077
 225		2.2163e+001	17.2870		15.4260
 226		2.2261e+001	17.3468		15.4434
 227		2.2360e+001	17.4341		15.4709
 228		2.2458e+001	17.5073		15.4866
 229		2.2557e+001	17.5859		15.5095
 230		2.2655e+001	17.6631		15.5278
 231		2.2753e+001	17.7363		15.5536
 232		2.2852e+001	17.8270		15.5736
 233		2.2951e+001	17.9015		15.5944
 234		2.3049e+001	17.9721		15.6143
 235		2.3148e+001	18.0533		15.6380
 236		2.3246e+001	18.1306		15.6520
 237		2.3345e+001	18.2179		15.6754
 238		2.3443e+001	18.2938		15.6974
 239		2.3541e+001	18.3703		15.7140
 240		2.3640e+001	18.4348		15.7339
 241		2.3738e+001	18.5328		15.7551
 242		2.3837e+001	18.5987		15.7776
 243		2.3936e+001	18.6866		15.7984
 244		2.4034e+001	18.7558		15.8170
 245		2.4133e+001	18.8398		15.8366
 246		2.4231e+001	18.9130		15.8552
 247		2.4329e+001	18.9862		15.8769
 248		2.4428e+001	19.0701		15.8921
 249		2.4526e+001	19.1648		15.9112
 250		2.4625e+001	19.2293		15.9307
 251		2.4724e+001	19.3085		15.9502
 252		2.4822e+001	19.3865		15.9702
 253		2.4921e+001	19.4711		15.9876
 254		2.5019e+001	19.5389		16.0020
 255		2.5118e+001	19.6155		16.0279
 256		2.5216e+001	19.6504		16.0419
 257		2.5314e+001	19.6786		16.0580
 258		2.5413e+001	19.6618		16.0554
 259		2.5512e+001	19.6302		16.0584
 260		2.5610e+001	19.6155		16.0643
 261		2.5709e+001	19.5738		16.0660
 262		2.5807e+001	19.5255		16.0643
 263		2.5906e+001	19.4650		16.0741
 264		2.6004e+001	19.4167		16.0694
 265		2.6102e+001	19.3636		16.0686
 266		2.6201e+001	19.2884		16.0592
 267		2.6299e+001	19.2286		16.0631
 268		2.6398e+001	19.1487		16.0618
 269		2.6497e+001	19.0862		16.0554
 270		2.6595e+001	19.0090		16.0508
 271		2.6694e+001	18.9600		16.0452
 272		2.6792e+001	18.8713		16.0414
 273		2.6890e+001	18.8015		16.0342
 274		2.6989e+001	18.7229		16.0312
 275		2.7087e+001	18.6376		16.0253
 276		2.7186e+001	18.5678		16.0206
 277		2.7285e+001	18.4999		16.0164
 278		2.7383e+001	18.4099		16.0079
 279		2.7482e+001	18.3320		15.9994
 280		2.7580e+001	18.2568		15.9943
 281		2.7679e+001	18.1863		15.9876
 282		2.7777e+001	18.1030		15.9808
 283		2.7875e+001	18.0291		15.9770
 284		2.7974e+001	17.9499		15.9706
 285		2.8073e+001	17.8673		15.9562
 286		2.8171e+001	17.7907		15.9473
 287		2.8270e+001	17.7236		15.9468
 288		2.8368e+001	17.6316		15.9324
 289		2.8467e+001	17.5550		15.9316
 290		2.8565e+001	17.4851		15.9252
 291		2.8663e+001	17.4052		15.9171
 292		2.8762e+001	17.3287		15.9019
 293		2.8860e+001	17.2514		15.9032
 294		2.8959e+001	17.1715		15.8896
 295		2.9058e+001	17.0795		15.8785
 296		2.9156e+001	17.0177		15.8747
 297		2.9255e+001	16.9371		15.8658
 298		2.9353e+001	16.8592		15.8624
 299		2.9451e+001	16.7739		15.8425
 300		2.9550e+001	16.6900		15.8370
 301		2.9648e+001	16.6114		15.8285
 302		2.9747e+001	16.5328		15.8149
 303		2.9846e+001	16.4670		15.8069
 304		2.9944e+001	16.3696		15.7929
 305		3.0043e+001	16.3025		15.7878
 306		3.0141e+001	16.2145		15.7835
 307		3.0240e+001	16.1393		15.7700
 308		3.0338e+001	16.0654		15.7572
 309		3.0436e+001	15.9895		15.7521
 310		3.0535e+001	15.8894		15.7424
 311		3.0634e+001	15.8357		15.7267
 312		3.0732e+001	15.7457		15.7229
 313		3.0831e+001	15.6806		15.7076
 314		3.0929e+001	15.5798		15.6966
 315		3.1028e+001	15.5194		15.6817
 316		3.1126e+001	15.4347		15.6733
 317		3.1224e+001	15.3568		15.6643
 318		3.1323e+001	15.2601		15.6516
 319		3.1422e+001	15.1943		15.6410
 320		3.1520e+001	15.1191		15.6266
 321		3.1619e+001	15.0492		15.6253
 322		3.1717e+001	14.9619		15.6028
 323		3.1816e+001	14.8874		15.5939
 324		3.1914e+001	14.8055		15.5825
 325		3.2013e+001	14.7181		15.5770
 326		3.2111e+001	14.6543		15.5638
 327		3.2209e+001	14.5711		15.5464
 328		3.2308e+001	14.4918		15.5392
 329		3.2407e+001	14.4139		15.5231
 330		3.2505e+001	14.3353		15.5125
 331		3.2603e+001	14.2635		15.5053
 332		3.2702e+001	14.1815		15.4862
 333		3.2801e+001	14.0915		15.4722
 334		3.2899e+001	14.0116		15.4607
 335		3.2998e+001	13.9424		15.4455
 336		3.3096e+001	13.8612		15.4306
 337		3.3194e+001	13.7873		15.4183
 338		3.3293e+001	13.7027		15.4090
 339		3.3392e+001	13.6322		15.3882
 340		3.3490e+001	13.5455		15.3746
 341		3.3589e+001	13.4824		15.3653
 342		3.3687e+001	13.3985		15.3517
 343		3.3785e+001	13.3098		15.3348
 344		3.3884e+001	13.2353		15.3246
 345		3.3983e+001	13.1567		15.3072
 346		3.4081e+001	13.0841		15.2928
 347		3.4179e+001	13.0029		15.2822
 348		3.4278e+001	12.9122		15.2601
 349		3.4377e+001	12.8491		15.2499
 350		3.4475e+001	12.7571		15.2313
 351		3.4574e+001	12.6792		15.2219
 352		3.4672e+001	12.6086		15.2050
 353		3.4770e+001	12.5334		15.1901
 354		3.4869e+001	12.4468		15.1749
 355		3.4968e+001	12.3756		15.1553
 356		3.5066e+001	12.2702		15.1422
 357		3.5164e+001	12.2090		15.1227
 358		3.5263e+001	12.1352		15.1032
 359		3.5361e+001	12.0687		15.0887
 360		3.5460e+001	11.9787		15.0714
 361		3.5559e+001	11.9075		15.0574
 362		3.5657e+001	11.8249		15.0421
 363		3.5755e+001	11.7302		15.0268
 364		3.5854e+001	11.6650		15.0060
 365		3.5953e+001	11.5912		14.9878
 366		3.6051e+001	11.5032		14.9717
 367		3.6150e+001	11.4280		14.9505
 368		3.6248e+001	11.3494		14.9339
 369		3.6346e+001	11.2775		14.9136
 370		3.6445e+001	11.1922		14.8987
 371		3.6544e+001	11.1123		14.8813
 372		3.6642e+001	11.0351		14.8593
 373		3.6740e+001	10.9713		14.8423
 374		3.6839e+001	10.8806		14.8249
 375		3.6938e+001	10.8101		14.8020
 376		3.7036e+001	10.7228		14.7880
 377		3.7135e+001	10.6556		14.7689
 378		3.7233e+001	10.5677		14.7452
 379		3.7331e+001	10.4864		14.7244
 380		3.7430e+001	10.3991		14.7049
 381		3.7529e+001	10.3373		14.6828
 382		3.7627e+001	10.2460		14.6620
 383		3.7725e+001	10.1761		14.6387
 384		3.7824e+001	10.0989		14.6226
 385		3.7922e+001	10.0290		14.5967
 386		3.8021e+001	9.9444		14.5780
 387		3.8120e+001	9.8625		14.5636
 388		3.8218e+001	9.7550		14.5331
 389		3.8316e+001	9.7013		14.5157
 390		3.8415e+001	9.6341		14.4962
 391		3.8514e+001	9.5435		14.4695
 392		3.8612e+001	9.4669		14.4495
 393		3.8711e+001	9.3930		14.4224
 394		3.8809e+001	9.3037		14.4016
 395		3.8907e+001	9.2244		14.3774
 396		3.9006e+001	9.1445		14.3554
 397		3.9105e+001	9.0754		14.3299
 398		3.9203e+001	8.9988		14.3040
 399		3.9301e+001	8.9202		14.2794
 400		3.9400e+001	8.8336		14.2574
 401		3.9499e+001	8.7664		14.2315
 402		3.9597e+001	8.6825		14.2031
 403		3.9696e+001	8.5891		14.1840
 404		3.9794e+001	8.5199		14.1539
 405		3.9892e+001	8.4487		14.1280
 406		3.9991e+001	8.3614		14.1030
 407		4.0090e+001	8.2903		14.0746
 408		4.0188e+001	8.2123		14.0432
 409		4.0286e+001	8.1398		14.0254
 410		4.0385e+001	8.0471		13.9952
 411		4.0483e+001	7.9766		13.9647
 412		4.0582e+001	7.8960		13.9397
 413		4.0681e+001	7.8127		13.9087
 414		4.0779e+001	7.7395		13.8807
 415		4.0877e+001	7.6516		13.8451
 416		4.0976e+001	7.5810		13.8243
 417		4.1075e+001	7.5018		13.7895
 418		4.1173e+001	7.4407		13.7611
 419		4.1272e+001	7.3493		13.7276
 420		4.1370e+001	7.2687		13.6996
 421		4.1468e+001	7.1996		13.6631
 422		4.1567e+001	7.1089		13.6334
 423		4.1666e+001	7.0370		13.6050
 424		4.1764e+001	6.9410		13.5660
 425		4.1862e+001	6.8631		13.5414
 426		4.1961e+001	6.7865		13.5015
 427		4.2060e+001	6.7127		13.4727
 428		4.2158e+001	6.6401		13.4396
 429		4.2257e+001	6.5703		13.4023
 430		4.2355e+001	6.4823		13.3675
 431		4.2453e+001	6.4104		13.3267
 432		4.2552e+001	6.3231		13.2962
 433		4.2651e+001	6.2446		13.2521
 434		4.2749e+001	6.1566		13.2228
 435		4.2847e+001	6.0887		13.1813
 436		4.2946e+001	6.0135		13.1477
 437		4.3044e+001	5.9336		13.1045
 438		4.3143e+001	5.8550		13.0667
 439		4.3242e+001	5.7717		13.0230
 440		4.3340e+001	5.6965		12.9827
 441		4.3438e+001	5.6300		12.9399
 442		4.3537e+001	5.5367		12.9043
 443		4.3636e+001	5.4487		12.8619
 444		4.3734e+001	5.3802		12.8182
 445		4.3833e+001	5.3083		12.7724
 446		4.3931e+001	5.2177		12.7223
 447		4.4029e+001	5.1478		12.6795
 448		4.4128e+001	5.0511		12.6366
 449		4.4227e+001	4.9900		12.5912
 450		4.4325e+001	4.8933		12.5471
 451		4.4423e+001	4.8268		12.5009
 452		4.4522e+001	4.7476		12.4517
 453		4.4621e+001	4.6696		12.3987
 454		4.4719e+001	4.5877		12.3541
 455		4.4818e+001	4.5138		12.3015
 456		4.4916e+001	4.4346		12.2545
 457		4.5014e+001	4.3788		12.1925
 458		4.5113e+001	4.2633		12.1437
 459		4.5212e+001	4.1901		12.0920
 460		4.5310e+001	4.1122		12.0326
 461		4.5408e+001	4.0377		11.9762
 462		4.5507e+001	3.9571		11.9228
 463		4.5605e+001	3.8852		11.8621
 464		4.5704e+001	3.8066		11.8048
 465		4.5803e+001	3.7375		11.7493
 466		4.5901e+001	3.6448		11.6810
 467		4.5999e+001	3.5743		11.6254
 468		4.6098e+001	3.4769		11.5588
 469		4.6197e+001	3.4097		11.4935
 470		4.6295e+001	3.3338		11.4324
 471		4.6394e+001	3.2593		11.3637
 472		4.6492e+001	3.1599		11.2929
 473		4.6590e+001	3.1162		11.2271
 474		4.6689e+001	3.0027		11.1567
 475		4.6788e+001	2.9248		11.0791
 476		4.6886e+001	2.8570		11.0065
 477		4.6984e+001	2.7757		10.9306
 478		4.7083e+001	2.6951		10.8530
 479		4.7182e+001	2.6300		10.7805
 480		4.7280e+001	2.5333		10.6969
 481		4.7379e+001	2.4601		10.6214
 482		4.7477e+001	2.3795		10.5361
 483		4.7575e+001	2.3023		10.4517
 484		4.7674e+001	2.2371		10.3644
 485		4.7773e+001	2.1552		10.2676
 486		4.7871e+001	2.0685		10.1769
 487		4.7969e+001	1.9832		10.0899
 488		4.8068e+001	1.9221		9.9873
 489		4.8166e+001	1.8476		9.8897
 490		4.8265e+001	1.7609		9.7934
 491		4.8364e+001	1.6783		9.6899
 492		4.8462e+001	1.5984		9.5839
 493		4.8560e+001	1.5198		9.4736
 494		4.8659e+001	1.4533		9.3625
 495		4.8758e+001	1.3674		9.2492
 496		4.8856e+001	1.3029		9.1271
 497		4.8955e+001	1.2116		9.0040
 498		4.9053e+001	1.1256		8.8823
 499		4.9151e+001	1.0490		8.7542
 500		4.9250e+001	0.9664		8.6193
 501		4.9349e+001	0.8952		8.4798
 502		4.9447e+001	0.8079		8.3436
 503		4.9545e+001	0.7233		8.1981
 504		4.9644e+001	0.6716		8.0518
 505		4.9743e+001	0.5850		7.8995
 506		4.9841e+001	0.5064		7.7362
 507		4.9940e+001	0.4298		7.5759
 508		5.0038e+001	0.3492		7.4003
 509		5.0136e+001	0.2693		7.2166
 510		5.0235e+001	0.1894		7.0334
 511		5.0334e+001	0.1148		6.8446
 512		5.0432e+001	0.0020		6.6427
 513		5.0531e+001	-0.0390		6.4446
 514		5.0629e+001	-0.1323		6.2262
 515		5.0727e+001	-0.1961		6.0009
 516		5.0826e+001	-0.2841		5.7583
 517		5.0925e+001	-0.3573		5.5153
 518		5.1023e+001	-0.4339		5.2569
 519		5.1121e+001	-0.5245		4.9842
