»»»»»»»»»»»»»»»»»»»»»»»»»»»»»»»»»»»» Hysteresis ««««««««««««««««««««««««««««««««««««
»»»  Version:			4.6.11
»»»  Vision Version:		4.6.5 (R)
»»»  Vision Compiled:		7 December 2011
»»»  Driver Version:		4.6.17
»»»  Tester Name:		PPM21211-813
»»»  Tester S/N:		PPM21211-813                    
»»»  Internal Amp Type:		No Internal Amp
»»»  Internal Amp S/N:		100000
»»»  Execution Count:		0
»»»»»»»»»»»»»»»»»»»»»»»»»»»»»»»»»»»»»»»»»»««««««««««««««««««««««««««««««««««««««««««

Stored:				5/16/2024 - 12:16:13
Configured:			05/16/24 12:00:07 PM
Executed:			05/16/24 12:15:49 PM

»»»»»»»»»»»»»»»»»»»»»»»»»»»»»»»»»»» Sample Info ««««««««««««««««««««««««««««««««««««
Sample Name:			
Lot Name:			
Wafer Name:			
Die Row/Column:			0/0
Capacitor Number:		0
Sample Area (cm2):		1.01e+000
Sample Thickness (µm):		1.11e+003

Mux Loop Adjustment:		Disabled

Amplifier:			High Voltage (HVA)
HVI Channel/Port:		1/1
Drive Gain Factor:			1000.00r
Drive Voltage Limit:			4000.00r

»»»»»»»»»»»»»»»»»»»»»»»»»»»»»»»»»»» Tester Info «««««««««««««««««««««««««««««««««««
Tester Name:			PPM21211-813
Tester Serial Number:		PPM21211-813                    
Return Signal Amp. Level:	0.00019

»»»»»»»»»»»»»»»»»»»»»»»»»»»»»»»» Hysteresis Info ««««««««««««««««««««««««««««««««««
Task Name:			Hyst-2
Volts:				2220.00
Field:				20.00 (kV/cm)
Hysteresis Period (ms):		1.00e+002
Preset:				Enabled
Preset Delay (ms):		1.00e+002
Profile:			Standard Bipolar

Sensor Offset:			0.00  
Sensor Scale:			-0.05 
Sensor Impedance (Ohms):	50
Sensor Label:			%

»»»»»»»»»»»»»»»»»»»»»»»»»»»»»»»»»»»»»» Data «««««««««««««««««««««««««««««««««««««««
Points:				1017

Valid Data

Point		Time (ms)	Field (kV/cm)	Measured Polarization	Sensor
   1		9.8500e-002	-0.0137		-1.7344		2.2767e-003
   2		1.9700e-001	0.0048		-1.7380		2.2916e-003
   3		2.9550e-001	0.0378		-1.7336		2.3066e-003
   4		3.9400e-001	0.0639		-1.7309		2.2318e-003
   5		4.9250e-001	0.1285		-1.7328		2.2842e-003
   6		5.9100e-001	0.1863		-1.7241		2.3066e-003
   7		6.8950e-001	0.2488		-1.7205		2.3328e-003
   8		7.8800e-001	0.3045		-1.7173		2.2767e-003
   9		8.8650e-001	0.3842		-1.7081		2.3178e-003
  10		9.8500e-001	0.4399		-1.7041		2.2281e-003
  11		1.0835e+000	0.5038		-1.6938		2.2318e-003
  12		1.1820e+000	0.5760		-1.6858		2.3664e-003
  13		1.2805e+000	0.6674		-1.6682		2.2094e-003
  14		1.3790e+000	0.7258		-1.6483		2.2767e-003
  15		1.4775e+000	0.8104		-1.6247		2.3178e-003
  16		1.5760e+000	0.8736		-1.6024		2.3402e-003
  17		1.6745e+000	0.9630		-1.5753		2.2617e-003
  18		1.7730e+000	1.0406		-1.5262		2.1683e-003
  19		1.8715e+000	1.1100		-1.4707		2.1683e-003
  20		1.9700e+000	1.1836		-1.4161		2.2468e-003
  21		2.0685e+000	1.2599		-1.3499		2.2131e-003
  22		2.1670e+000	1.3465		-1.2788		2.2206e-003
  23		2.2655e+000	1.4242		-1.1998		2.1384e-003
  24		2.3640e+000	1.4846		-1.1025		2.1085e-003
  25		2.4625e+000	1.5822		-1.0048		2.1533e-003
  26		2.5610e+000	1.6489		-0.8954		2.1496e-003
  27		2.6595e+000	1.7286		-0.7730		2.1384e-003
  28		2.7580e+000	1.8036		-0.6309		2.1272e-003
  29		2.8565e+000	1.8929		-0.4554		2.1159e-003
  30		2.9550e+000	1.9630		-0.2452		2.1608e-003
  31		3.0535e+000	2.0297		0.0225		2.0262e-003
  32		3.1520e+000	2.1026		0.3724		2.0374e-003
  33		3.2505e+000	2.2153		0.7498		2.0935e-003
  34		3.3490e+000	2.2984		1.0981		2.1309e-003
  35		3.4475e+000	2.3658		1.3838		2.3141e-003
  36		3.5460e+000	2.4318		1.6343		2.1421e-003
  37		3.6445e+000	2.5204		1.8569		2.1458e-003
  38		3.7430e+000	2.5940		2.0680		2.3215e-003
  39		3.8415e+000	2.6627		2.2595		2.2169e-003
  40		3.9400e+000	2.7514		2.4398		2.4711e-003
  41		4.0385e+000	2.8311		2.6225		2.4075e-003
  42		4.1370e+000	2.9047		2.7905		2.4973e-003
  43		4.2355e+000	2.9892		2.9461		2.5795e-003
  44		4.3340e+000	3.0689		3.1005		2.7029e-003
  45		4.4325e+000	3.1555		3.2572		2.6356e-003
  46		4.5310e+000	3.2160		3.3933		2.8561e-003
  47		4.6295e+000	3.2903		3.5321		3.0431e-003
  48		4.7280e+000	3.3796		3.6757		3.1627e-003
  49		4.8265e+000	3.4642		3.8146		3.1664e-003
  50		4.9250e+000	3.5212		3.9411		3.3272e-003
  51		5.0235e+000	3.6099		4.0635		3.4618e-003
  52		5.1220e+000	3.6745		4.1868		3.5851e-003
  53		5.2205e+000	3.7652		4.3081		3.6749e-003
  54		5.3190e+000	3.8374		4.4246		3.8506e-003
  55		5.4175e+000	3.9281		4.5399		4.0263e-003
  56		5.5160e+000	3.9968		4.6468		4.1197e-003
  57		5.6145e+000	4.0773		4.7509		4.1908e-003
  58		5.7130e+000	4.1536		4.8594		4.3627e-003
  59		5.8115e+000	4.2546		4.9556		4.4599e-003
  60		5.9100e+000	4.3302		5.0481		4.6543e-003
  61		6.0085e+000	4.3790		5.1475		4.9459e-003
  62		6.1070e+000	4.4615		5.2424		5.0244e-003
  63		6.2055e+000	4.5467		5.3334		5.1440e-003
  64		6.3040e+000	4.6223		5.4188		5.0992e-003
  65		6.4025e+000	4.7089		5.5125		5.3983e-003
  66		6.5010e+000	4.7866		5.5895		5.6076e-003
  67		6.5995e+000	4.8608		5.6753		5.7534e-003
  68		6.6980e+000	4.9289		5.7575		5.8917e-003
  69		6.7965e+000	5.0127		5.8353		6.0487e-003
  70		6.8950e+000	5.1014		5.9111		6.3927e-003
  71		6.9935e+000	5.1763		5.9857		6.3852e-003
  72		7.0920e+000	5.2560		6.0595		6.5385e-003
  73		7.1905e+000	5.3468		6.1361		6.8039e-003
  74		7.2890e+000	5.4162		6.2039		6.8712e-003
  75		7.3875e+000	5.4897		6.2757		6.9983e-003
  76		7.4860e+000	5.5743		6.3467		7.2450e-003
  77		7.5845e+000	5.6513		6.4130		7.3534e-003
  78		7.6830e+000	5.7392		6.4740		7.5927e-003
  79		7.7815e+000	5.8176		6.5378		7.6824e-003
  80		7.8800e+000	5.8987		6.6025		7.7348e-003
  81		7.9785e+000	5.9750		6.6655		7.9852e-003
  82		8.0770e+000	6.0540		6.7213		8.1796e-003
  83		8.1755e+000	6.1269		6.7832		8.3217e-003
  84		8.2740e+000	6.2004		6.8402		8.4974e-003
  85		8.3725e+000	6.2863		6.8993		8.6843e-003
  86		8.4710e+000	6.3709		6.9571		8.9049e-003
  87		8.5695e+000	6.4513		7.0070		8.8413e-003
  88		8.6680e+000	6.5049		7.0617		9.1553e-003
  89		8.7665e+000	6.6039		7.1099		9.2563e-003
  90		8.8650e+000	6.6740		7.1666		9.4843e-003
  91		8.9635e+000	6.7551		7.2157		9.5965e-003
  92		9.0620e+000	6.8314		7.2647		9.7049e-003
  93		9.1605e+000	6.9084		7.3106		9.8582e-003
  94		9.2590e+000	6.9840		7.3581		9.9965e-003
  95		9.3575e+000	7.0802		7.4052		1.0277e-002
  96		9.4560e+000	7.1366		7.4518		1.0382e-002
  97		9.5545e+000	7.2232		7.5017		1.0456e-002
  98		9.6530e+000	7.2912		7.5456		1.0639e-002
  99		9.7515e+000	7.3854		7.5827		1.0770e-002
 100		9.8500e+000	7.4569		7.6326		1.0980e-002
 101		9.9485e+000	7.5579		7.6709		1.0987e-002
 102		1.0047e+001	7.6232		7.7227		1.1189e-002
 103		1.0146e+001	7.6981		7.7606		1.1395e-002
 104		1.0244e+001	7.7634		7.7969		1.1447e-002
 105		1.0342e+001	7.8466		7.8384		1.1690e-002
 106		1.0441e+001	7.9229		7.8791		1.1843e-002
 107		1.0540e+001	8.0088		7.9190		1.1810e-002
 108		1.0638e+001	8.0927		7.9545		1.2015e-002
 109		1.0736e+001	8.1848		7.9956		1.2251e-002
 110		1.0835e+001	8.2452		8.0335		1.2240e-002
 111		1.0934e+001	8.3215		8.0690		1.2385e-002
 112		1.1032e+001	8.3951		8.1053		1.2595e-002
 113		1.1131e+001	8.4851		8.1392		1.2789e-002
 114		1.1229e+001	8.5504		8.1819		1.2815e-002
 115		1.1328e+001	8.6315		8.2138		1.2924e-002
 116		1.1426e+001	8.7106		8.2442		1.3122e-002
 117		1.1525e+001	8.8027		8.2844		1.3159e-002
 118		1.1623e+001	8.8748		8.3172		1.3331e-002
 119		1.1722e+001	8.9511		8.3511		1.3406e-002
 120		1.1820e+001	9.0261		8.3830		1.3574e-002
 121		1.1919e+001	9.1133		8.4073		1.3694e-002
 122		1.2017e+001	9.1835		8.4448		1.3813e-002
 123		1.2116e+001	9.2591		8.4783		1.3948e-002
 124		1.2214e+001	9.3429		8.5079		1.4071e-002
 125		1.2313e+001	9.4165		8.5350		1.4213e-002
 126		1.2411e+001	9.4886		8.5705		1.4281e-002
 127		1.2509e+001	9.5787		8.6020		1.4434e-002
 128		1.2608e+001	9.6584		8.6319		1.4617e-002
 129		1.2707e+001	9.7306		8.6619		1.4692e-002
 130		1.2805e+001	9.8041		8.6822		1.4733e-002
 131		1.2903e+001	9.8921		8.7157		1.4845e-002
 132		1.3002e+001	9.9732		8.7452		1.5032e-002
 133		1.3101e+001	10.0550		8.7728		1.5114e-002
 134		1.3199e+001	10.1272		8.8055		1.5283e-002
 135		1.3297e+001	10.1980		8.8354		1.5432e-002
 136		1.3396e+001	10.2784		8.8637		1.5507e-002
 137		1.3495e+001	10.3643		8.8889		1.5548e-002
 138		1.3593e+001	10.4475		8.9076		1.5630e-002
 139		1.3692e+001	10.5251		8.9371		1.5776e-002
 140		1.3790e+001	10.6090		8.9655		1.5918e-002
 141		1.3889e+001	10.6860		8.9926		1.5997e-002
 142		1.3987e+001	10.7547		9.0185		1.6176e-002
 143		1.4086e+001	10.8317		9.0401		1.6303e-002
 144		1.4184e+001	10.9093		9.0644		1.6382e-002
 145		1.4283e+001	10.9918		9.0931		1.6288e-002
 146		1.4381e+001	11.0667		9.1191		1.6527e-002
 147		1.4480e+001	11.1293		9.1442		1.6651e-002
 148		1.4578e+001	11.2111		9.1697		1.6718e-002
 149		1.4677e+001	11.3142		9.1933		1.6845e-002
 150		1.4775e+001	11.3829		9.2140		1.6976e-002
 151		1.4874e+001	11.4510		9.2423		1.7051e-002
 152		1.4972e+001	11.5355		9.2579		1.7066e-002
 153		1.5070e+001	11.6200		9.2834		1.7316e-002
 154		1.5169e+001	11.6970		9.2982		1.7361e-002
 155		1.5268e+001	11.7582		9.3305		1.7496e-002
 156		1.5366e+001	11.8455		9.3477		1.7619e-002
 157		1.5464e+001	11.9307		9.3728		1.7615e-002
 158		1.5563e+001	12.0153		9.3955		1.7705e-002
 159		1.5662e+001	12.0854		9.4147		1.7888e-002
 160		1.5760e+001	12.1679		9.4394		1.7993e-002
 161		1.5858e+001	12.2373		9.4618		1.8079e-002
 162		1.5957e+001	12.3198		9.4801		1.8199e-002
 163		1.6055e+001	12.3947		9.5088		1.8296e-002
 164		1.6154e+001	12.4765		9.5260		1.8348e-002
 165		1.6253e+001	12.5569		9.5515		1.8427e-002
 166		1.6351e+001	12.6339		9.5739		1.8542e-002
 167		1.6450e+001	12.7163		9.5886		1.8651e-002
 168		1.6548e+001	12.7940		9.6058		1.8737e-002
 169		1.6647e+001	12.8737		9.6293		1.8875e-002
 170		1.6745e+001	12.9370		9.6441		1.8898e-002
 171		1.6843e+001	13.0243		9.6708		1.8965e-002
 172		1.6942e+001	13.1006		9.6872		1.9111e-002
 173		1.7041e+001	13.1879		9.7103		1.9193e-002
 174		1.7139e+001	13.2559		9.7259		1.9324e-002
 175		1.7238e+001	13.3343		9.7422		1.9481e-002
 176		1.7336e+001	13.4009		9.7709		1.9372e-002
 177		1.7435e+001	13.5006		9.7845		1.9597e-002
 178		1.7533e+001	13.5707		9.8001		1.9608e-002
 179		1.7631e+001	13.6477		9.8156		1.9698e-002
 180		1.7730e+001	13.7281		9.8416		1.9877e-002
 181		1.7828e+001	13.8092		9.8619		1.9989e-002
 182		1.7927e+001	13.8876		9.8775		2.0030e-002
 183		1.8026e+001	13.9749		9.8934		2.0049e-002
 184		1.8124e+001	14.0374		9.9122		2.0236e-002
 185		1.8223e+001	14.1206		9.9313		2.0258e-002
 186		1.8321e+001	14.2092		9.9445		2.0348e-002
 187		1.8419e+001	14.2848		9.9708		2.0382e-002
 188		1.8518e+001	14.3625		9.9892		2.0468e-002
 189		1.8616e+001	14.4367		10.0039		2.0531e-002
 190		1.8715e+001	14.5130		10.0219		2.0621e-002
 191		1.8814e+001	14.5976		10.0418		2.0711e-002
 192		1.8912e+001	14.6581		10.0554		2.0815e-002
 193		1.9011e+001	14.7618		10.0674		2.0920e-002
 194		1.9109e+001	14.8182		10.0929		2.1043e-002
 195		1.9208e+001	14.9165		10.1053		2.1100e-002
 196		1.9306e+001	14.9818		10.1200		2.1152e-002
 197		1.9404e+001	15.0547		10.1392		2.1234e-002
 198		1.9503e+001	15.1385		10.1571		2.1331e-002
 199		1.9602e+001	15.2162		10.1663		2.1425e-002
 200		1.9700e+001	15.2959		10.1878		2.1492e-002
 201		1.9799e+001	15.3908		10.2006		2.1556e-002
 202		1.9897e+001	15.4650		10.2146		2.1623e-002
 203		1.9996e+001	15.5275		10.2349		2.1668e-002
 204		2.0094e+001	15.6100		10.2493		2.1825e-002
 205		2.0192e+001	15.6939		10.2660		2.1952e-002
 206		2.0291e+001	15.7715		10.2904		2.1900e-002
 207		2.0390e+001	15.8444		10.2980		2.1937e-002
 208		2.0488e+001	15.9351		10.3155		2.2109e-002
 209		2.0587e+001	16.0169		10.3279		2.2229e-002
 210		2.0685e+001	16.0884		10.3398		2.2277e-002
 211		2.0784e+001	16.1613		10.3630		2.2337e-002
 212		2.0882e+001	16.2389		10.3750		2.2468e-002
 213		2.0980e+001	16.3173		10.3837		2.2789e-002
 214		2.1079e+001	16.3950		10.4089		2.2595e-002
 215		2.1177e+001	16.4706		10.4188		2.2632e-002
 216		2.1276e+001	16.5317		10.4288		2.2729e-002
 217		2.1375e+001	16.6424		10.4480		2.2782e-002
 218		2.1473e+001	16.7036		10.4627		2.2838e-002
 219		2.1572e+001	16.7929		10.4783		2.3010e-002
 220		2.1670e+001	16.8706		10.4938		2.3032e-002
 221		2.1769e+001	16.9503		10.5062		2.3171e-002
 222		2.1867e+001	17.0280		10.5198		2.3201e-002
 223		2.1965e+001	17.1050		10.5349		2.3301e-002
 224		2.2064e+001	17.1923		10.5481		2.3316e-002
 225		2.2163e+001	17.2699		10.5621		2.3421e-002
 226		2.2261e+001	17.3400		10.5788		2.3451e-002
 227		2.2360e+001	17.4287		10.5860		2.3507e-002
 228		2.2458e+001	17.5002		10.6048		2.3578e-002
 229		2.2557e+001	17.5909		10.6223		2.3739e-002
 230		2.2655e+001	17.6548		10.6335		2.3795e-002
 231		2.2753e+001	17.7380		10.6466		2.3758e-002
 232		2.2852e+001	17.8143		10.6582		2.3870e-002
 233		2.2951e+001	17.8988		10.6726		2.3911e-002
 234		2.3049e+001	17.9731		10.6817		2.3982e-002
 235		2.3148e+001	18.0624		10.7001		2.4101e-002
 236		2.3246e+001	18.1346		10.7121		2.4135e-002
 237		2.3345e+001	18.2184		10.7296		2.4150e-002
 238		2.3443e+001	18.2913		10.7400		2.4307e-002
 239		2.3541e+001	18.3710		10.7576		2.4300e-002
 240		2.3640e+001	18.4453		10.7655		2.4389e-002
 241		2.3738e+001	18.5339		10.7799		2.4539e-002
 242		2.3837e+001	18.5985		10.7911		2.4535e-002
 243		2.3936e+001	18.6762		10.8062		2.4509e-002
 244		2.4034e+001	18.7436		10.8174		2.4599e-002
 245		2.4133e+001	18.8480		10.8270		2.4640e-002
 246		2.4231e+001	18.9168		10.8425		2.4819e-002
 247		2.4329e+001	19.0006		10.8541		2.4827e-002
 248		2.4428e+001	19.0707		10.8669		2.4961e-002
 249		2.4526e+001	19.1518		10.8788		2.4950e-002
 250		2.4625e+001	19.2316		10.8900		2.4999e-002
 251		2.4724e+001	19.2976		10.9044		2.5118e-002
 252		2.4822e+001	19.3793		10.9119		2.5193e-002
 253		2.4921e+001	19.4570		10.9287		2.5186e-002
 254		2.5019e+001	19.5443		10.9435		2.5290e-002
 255		2.5118e+001	19.6234		10.9522		2.5436e-002
 256		2.5216e+001	19.6460		10.9562		2.5455e-002
 257		2.5314e+001	19.6722		10.9718		2.5473e-002
 258		2.5413e+001	19.6508		10.9754		2.5522e-002
 259		2.5512e+001	19.6302		10.9794		2.5571e-002
 260		2.5610e+001	19.6089		10.9782		2.5545e-002
 261		2.5709e+001	19.5594		10.9814		2.5679e-002
 262		2.5807e+001	19.5223		10.9846		2.5758e-002
 263		2.5906e+001	19.4708		10.9810		2.5776e-002
 264		2.6004e+001	19.4227		10.9726		2.5840e-002
 265		2.6102e+001	19.3629		10.9774		2.5881e-002
 266		2.6201e+001	19.2927		10.9686		2.6023e-002
 267		2.6299e+001	19.2220		10.9610		2.5922e-002
 268		2.6398e+001	19.1546		10.9590		2.5930e-002
 269		2.6497e+001	19.0955		10.9522		2.5971e-002
 270		2.6595e+001	19.0103		10.9526		2.5982e-002
 271		2.6694e+001	18.9470		10.9447		2.6008e-002
 272		2.6792e+001	18.8680		10.9315		2.5956e-002
 273		2.6890e+001	18.7999		10.9219		2.5926e-002
 274		2.6989e+001	18.7229		10.9131		2.5956e-002
 275		2.7087e+001	18.6398		10.9119		2.6176e-002
 276		2.7186e+001	18.5511		10.8996		2.5971e-002
 277		2.7285e+001	18.4982		10.8924		2.5971e-002
 278		2.7383e+001	18.4136		10.8844		2.5971e-002
 279		2.7482e+001	18.3422		10.8748		2.5952e-002
 280		2.7580e+001	18.2528		10.8689		2.5930e-002
 281		2.7679e+001	18.1848		10.8557		2.5941e-002
 282		2.7777e+001	18.0920		10.8445		2.5933e-002
 283		2.7875e+001	18.0287		10.8357		2.5814e-002
 284		2.7974e+001	17.9456		10.8326		2.5829e-002
 285		2.8073e+001	17.8844		10.8202		2.5814e-002
 286		2.8171e+001	17.7950		10.8150		2.5630e-002
 287		2.8270e+001	17.7284		10.7986		2.5746e-002
 288		2.8368e+001	17.6383		10.7899		2.5578e-002
 289		2.8467e+001	17.5696		10.7863		2.5672e-002
 290		2.8565e+001	17.4748		10.7763		2.5664e-002
 291		2.8663e+001	17.3943		10.7631		2.5593e-002
 292		2.8762e+001	17.3256		10.7548		2.5649e-002
 293		2.8860e+001	17.2637		10.7416		2.5608e-002
 294		2.8959e+001	17.1668		10.7348		2.5526e-002
 295		2.9058e+001	17.0864		10.7185		2.5455e-002
 296		2.9156e+001	17.0039		10.7165		2.5473e-002
 297		2.9255e+001	16.9304		10.6997		2.5331e-002
 298		2.9353e+001	16.8390		10.6881		2.5294e-002
 299		2.9451e+001	16.7640		10.6806		2.5346e-002
 300		2.9550e+001	16.7001		10.6650		2.5234e-002
 301		2.9648e+001	16.6156		10.6542		2.5361e-002
 302		2.9747e+001	16.5365		10.6438		2.5070e-002
 303		2.9846e+001	16.4637		10.6359		2.5178e-002
 304		2.9944e+001	16.3654		10.6283		2.5111e-002
 305		3.0043e+001	16.3090		10.6151		2.5002e-002
 306		3.0141e+001	16.2197		10.6004		2.4943e-002
 307		3.0240e+001	16.1386		10.5988		2.4920e-002
 308		3.0338e+001	16.0561		10.5768		2.4793e-002
 309		3.0436e+001	15.9867		10.5665		2.4834e-002
 310		3.0535e+001	15.8959		10.5605		2.4830e-002
 311		3.0634e+001	15.8382		10.5445		2.4744e-002
 312		3.0732e+001	15.7434		10.5381		2.4752e-002
 313		3.0831e+001	15.6698		10.5270		2.4700e-002
 314		3.0929e+001	15.5928		10.5158		2.4726e-002
 315		3.1028e+001	15.5083		10.4982		2.4393e-002
 316		3.1126e+001	15.4286		10.4903		2.4483e-002
 317		3.1224e+001	15.3612		10.4811		2.4382e-002
 318		3.1323e+001	15.2677		10.4651		2.4412e-002
 319		3.1422e+001	15.1914		10.4543		2.4296e-002
 320		3.1520e+001	15.1234		10.4428		2.4184e-002
 321		3.1619e+001	15.0471		10.4328		2.4154e-002
 322		3.1717e+001	14.9536		10.4152		2.4120e-002
 323		3.1816e+001	14.8670		10.4085		2.4124e-002
 324		3.1914e+001	14.8134		10.3897		2.4057e-002
 325		3.2013e+001	14.7282		10.3797		2.3903e-002
 326		3.2111e+001	14.6539		10.3702		2.3918e-002
 327		3.2209e+001	14.5756		10.3570		2.3885e-002
 328		3.2308e+001	14.4917		10.3486		2.3709e-002
 329		3.2407e+001	14.4141		10.3327		2.3687e-002
 330		3.2505e+001	14.3426		10.3175		2.3653e-002
 331		3.2603e+001	14.2580		10.3035		2.3559e-002
 332		3.2702e+001	14.1756		10.2900		2.3578e-002
 333		3.2801e+001	14.0965		10.2800		2.3447e-002
 334		3.2899e+001	14.0188		10.2640		2.3488e-002
 335		3.2998e+001	13.9439		10.2541		2.3387e-002
 336		3.3096e+001	13.8738		10.2389		2.3268e-002
 337		3.3194e+001	13.8023		10.2257		2.3201e-002
 338		3.3293e+001	13.7068		10.2166		2.3085e-002
 339		3.3392e+001	13.6284		10.1974		2.3107e-002
 340		3.3490e+001	13.5439		10.1882		2.2991e-002
 341		3.3589e+001	13.4779		10.1675		2.3006e-002
 342		3.3687e+001	13.3975		10.1575		2.2905e-002
 343		3.3785e+001	13.3150		10.1472		2.2845e-002
 344		3.3884e+001	13.2312		10.1284		2.2872e-002
 345		3.3983e+001	13.1624		10.1160		2.2744e-002
 346		3.4081e+001	13.0799		10.1017		2.2707e-002
 347		3.4179e+001	13.0050		10.0913		2.2636e-002
 348		3.4278e+001	12.9177		10.0725		2.2445e-002
 349		3.4377e+001	12.8511		10.0566		2.2475e-002
 350		3.4475e+001	12.7617		10.0446		2.2386e-002
 351		3.4574e+001	12.6827		10.0287		2.2315e-002
 352		3.4672e+001	12.6077		10.0179		2.2341e-002
 353		3.4770e+001	12.5370		9.9948		2.2247e-002
 354		3.4869e+001	12.4483		9.9828		2.2199e-002
 355		3.4968e+001	12.3830		9.9676		2.2143e-002
 356		3.5066e+001	12.2868		9.9592		2.2105e-002
 357		3.5164e+001	12.2270		9.9365		2.2064e-002
 358		3.5263e+001	12.1472		9.9241		2.1941e-002
 359		3.5361e+001	12.0599		9.9050		2.1851e-002
 360		3.5460e+001	11.9809		9.8946		2.1840e-002
 361		3.5559e+001	11.8964		9.8803		2.1772e-002
 362		3.5657e+001	11.8208		9.8551		2.1675e-002
 363		3.5755e+001	11.7362		9.8432		2.1593e-002
 364		3.5854e+001	11.6750		9.8288		2.1556e-002
 365		3.5953e+001	11.5822		9.8120		2.1443e-002
 366		3.6051e+001	11.5066		9.7961		2.1451e-002
 367		3.6150e+001	11.4393		9.7829		2.1372e-002
 368		3.6248e+001	11.3506		9.7626		2.1286e-002
 369		3.6346e+001	11.2839		9.7498		2.1245e-002
 370		3.6445e+001	11.1967		9.7287		2.1133e-002
 371		3.6544e+001	11.1224		9.7159		2.1002e-002
 372		3.6642e+001	11.0338		9.7019		2.0909e-002
 373		3.6740e+001	10.9623		9.6788		2.0872e-002
 374		3.6839e+001	10.8874		9.6580		2.0864e-002
 375		3.6938e+001	10.8028		9.6417		2.0763e-002
 376		3.7036e+001	10.7183		9.6305		2.0756e-002
 377		3.7135e+001	10.6385		9.6082		2.0606e-002
 378		3.7233e+001	10.5767		9.5898		2.0550e-002
