»»»»»»»»»»»»»»»»»»»»»»»»»»»»»»»»»»»» Hysteresis ««««««««««««««««««««««««««««««««««««
»»»  Version:			4.6.11
»»»  Vision Version:		4.6.5 (R)
»»»  Vision Compiled:		7 December 2011
»»»  Driver Version:		4.6.17
»»»  Tester Name:		PPM21211-813
»»»  Tester S/N:		PPM21211-813                    
»»»  Internal Amp Type:		No Internal Amp
»»»  Internal Amp S/N:		100000
»»»  Execution Count:		0
»»»»»»»»»»»»»»»»»»»»»»»»»»»»»»»»»»»»»»»»»»««««««««««««««««««««««««««««««««««««««««««

Stored:				1/16/2024 - 11:22:53
Configured:			01/16/24 11:09:13 AM
Executed:			01/16/24 11:22:25 AM

»»»»»»»»»»»»»»»»»»»»»»»»»»»»»»»»»»» Sample Info ««««««««««««««««««««««««««««««««««««
Sample Name:			
Lot Name:			
Wafer Name:			
Die Row/Column:			0/0
Capacitor Number:		0
Sample Area (cm2):		1.03e+000
Sample Thickness (µm):		1.15e+003

Mux Loop Adjustment:		Disabled

Amplifier:			High Voltage (HVA)
HVI Channel/Port:		1/1
Drive Gain Factor:			1000.00r
Drive Voltage Limit:			4000.00r

»»»»»»»»»»»»»»»»»»»»»»»»»»»»»»»»»»» Tester Info «««««««««««««««««««««««««««««««««««
Tester Name:			PPM21211-813
Tester Serial Number:		PPM21211-813                    
Return Signal Amp. Level:	0.00019

»»»»»»»»»»»»»»»»»»»»»»»»»»»»»»»» Hysteresis Info ««««««««««««««««««««««««««««««««««
Task Name:			Hyst-2
Volts:				2300.00
Field:				20.00 (kV/cm)
Hysteresis Period (ms):		1.00e+002
Preset:				Enabled
Preset Delay (ms):		1.00e+002
Profile:			Standard Bipolar

»»»»»»»»»»»»»»»»»»»»»»»»»»»»»»»»»»»»»» Data «««««««««««««««««««««««««««««««««««««««
Points:				1017

Valid Data

Point		Time (ms)	Field (kV/cm)	Measured Polarization
   1		9.8500e-002	-0.0119		-3.3137
   2		1.9700e-001	-0.0013		-3.3055
   3		2.9550e-001	0.0352		-3.2895
   4		3.9400e-001	0.0770		-3.2703
   5		4.9250e-001	0.1353		-3.2453
   6		5.9100e-001	0.1924		-3.1987
   7		6.8950e-001	0.2355		-3.1400
   8		7.8800e-001	0.3025		-3.0599
   9		8.8650e-001	0.3755		-2.9578
  10		9.8500e-001	0.4266		-2.8447
  11		1.0835e+000	0.5095		-2.6969
  12		1.1820e+000	0.5752		-2.5201
  13		1.2805e+000	0.6654		-2.3230
  14		1.3790e+000	0.7357		-2.1016
  15		1.4775e+000	0.7974		-1.8458
  16		1.5760e+000	0.8651		-1.5747
  17		1.6745e+000	0.9467		-1.2892
  18		1.7730e+000	1.0243		-0.9653
  19		1.8715e+000	1.1092		-0.6383
  20		1.9700e+000	1.1908		-0.2934
  21		2.0685e+000	1.2738		0.0422
  22		2.1670e+000	1.3368		0.3798
  23		2.2655e+000	1.4350		0.7040
  24		2.3640e+000	1.5046		1.0158
  25		2.4625e+000	1.5750		1.3115
  26		2.5610e+000	1.6493		1.5915
  27		2.6595e+000	1.7296		1.8552
  28		2.7580e+000	1.8151		2.1168
  29		2.8565e+000	1.9060		2.3554
  30		2.9550e+000	1.9803		2.5870
  31		3.0535e+000	2.0626		2.8021
  32		3.1520e+000	2.1230		3.0145
  33		3.2505e+000	2.2085		3.2148
  34		3.3490e+000	2.2842		3.4107
  35		3.4475e+000	2.3518		3.5934
  36		3.5460e+000	2.4381		3.7760
  37		3.6445e+000	2.5277		3.9395
  38		3.7430e+000	2.5986		4.1124
  39		3.8415e+000	2.6769		4.2681
  40		3.9400e+000	2.7539		4.4159
  41		4.0385e+000	2.8295		4.5665
  42		4.1370e+000	2.9058		4.7046
  43		4.2355e+000	2.9867		4.8454
  44		4.3340e+000	3.0597		4.9772
  45		4.4325e+000	3.1493		5.1028
  46		4.5310e+000	3.2315		5.2307
  47		4.6295e+000	3.3065		5.3492
  48		4.7280e+000	3.3629		5.4716
  49		4.8265e+000	3.4724		5.5835
  50		4.9250e+000	3.5380		5.6867
  51		5.0235e+000	3.6130		5.7927
  52		5.1220e+000	3.6979		5.8964
  53		5.2205e+000	3.7683		6.0012
  54		5.3190e+000	3.8578		6.0994
  55		5.4175e+000	3.9421		6.1917
  56		5.5160e+000	4.0131		6.2856
  57		5.6145e+000	4.1006		6.3810
  58		5.7130e+000	4.1676		6.4698
  59		5.8115e+000	4.2426		6.5535
  60		5.9100e+000	4.3123		6.6290
  61		6.0085e+000	4.3978		6.7162
  62		6.1070e+000	4.4728		6.7937
  63		6.2055e+000	4.5697		6.8770
  64		6.3040e+000	4.6453		6.9493
  65		6.4025e+000	4.7262		7.0232
  66		6.5010e+000	4.7913		7.0944
  67		6.5995e+000	4.8596		7.1676
  68		6.6980e+000	4.9458		7.2384
  69		6.7965e+000	5.0301		7.3029
  70		6.8950e+000	5.1104		7.3741
  71		6.9935e+000	5.1913		7.4398
  72		7.0920e+000	5.2782		7.5055
  73		7.1905e+000	5.3585		7.5712
  74		7.2890e+000	5.4321		7.6330
  75		7.3875e+000	5.4965		7.6897
  76		7.4860e+000	5.5854		7.7543
  77		7.5845e+000	5.6610		7.8137
  78		7.6830e+000	5.7453		7.8736
  79		7.7815e+000	5.8355		7.9248
  80		7.8800e+000	5.9032		7.9772
  81		7.9785e+000	5.9814		8.0410
  82		8.0770e+000	6.0511		8.0860
  83		8.1755e+000	6.1261		8.1403
  84		8.2740e+000	6.2050		8.1998
  85		8.3725e+000	6.3065		8.2412
  86		8.4710e+000	6.3735		8.2901
  87		8.5695e+000	6.4512		8.3433
  88		8.6680e+000	6.5367		8.3914
  89		8.7665e+000	6.6163		8.4427
  90		8.8650e+000	6.6847		8.4869
  91		8.9635e+000	6.7709		8.5346
  92		9.0620e+000	6.8386		8.5792
  93		9.1605e+000	6.9308		8.6195
  94		9.2590e+000	6.9925		8.6688
  95		9.3575e+000	7.0927		8.7149
  96		9.4560e+000	7.1517		8.7572
  97		9.5545e+000	7.2353		8.7978
  98		9.6530e+000	7.3043		8.8401
  99		9.7515e+000	7.3733		8.8831
 100		9.8500e+000	7.4688		8.9214
 101		9.9485e+000	7.5498		8.9613
 102		1.0047e+001	7.6334		8.9997
 103		1.0146e+001	7.6898		9.0443
 104		1.0244e+001	7.7833		9.0818
 105		1.0342e+001	7.8609		9.1162
 106		1.0441e+001	7.9306		9.1585
 107		1.0540e+001	8.0168		9.1944
 108		1.0638e+001	8.0878		9.2293
 109		1.0736e+001	8.1800		9.2621
 110		1.0835e+001	8.2530		9.3020
 111		1.0934e+001	8.3399		9.3364
 112		1.1032e+001	8.4162		9.3716
 113		1.1131e+001	8.4965		9.4061
 114		1.1229e+001	8.5549		9.4393
 115		1.1328e+001	8.6292		9.4757
 116		1.1426e+001	8.7167		9.5089
 117		1.1525e+001	8.8083		9.5465
 118		1.1623e+001	8.8846		9.5715
 119		1.1722e+001	8.9569		9.6091
 120		1.1820e+001	9.0564		9.6396
 121		1.1919e+001	9.1248		9.6709
 122		1.2017e+001	9.1798		9.7041
 123		1.2116e+001	9.2687		9.7346
 124		1.2214e+001	9.3410		9.7624
 125		1.2313e+001	9.4279		9.7952
 126		1.2411e+001	9.5036		9.8250
 127		1.2509e+001	9.5984		9.8527
 128		1.2608e+001	9.6734		9.8840
 129		1.2707e+001	9.7490		9.9157
 130		1.2805e+001	9.8114		9.9454
 131		1.2903e+001	9.9030		9.9720
 132		1.3002e+001	9.9720		10.0021
 133		1.3101e+001	10.0595		10.0315
 134		1.3199e+001	10.1285		10.0557
 135		1.3297e+001	10.2108		10.0843
 136		1.3396e+001	10.2891		10.1105
 137		1.3495e+001	10.3707		10.1422
 138		1.3593e+001	10.4509		10.1613
 139		1.3692e+001	10.5272		10.1911
 140		1.3790e+001	10.5996		10.2149
 141		1.3889e+001	10.6792		10.2486
 142		1.3987e+001	10.7468		10.2673
 143		1.4086e+001	10.8410		10.2986
 144		1.4184e+001	10.9193		10.3178
 145		1.4283e+001	10.9910		10.3444
 146		1.4381e+001	11.0606		10.3741
 147		1.4480e+001	11.1502		10.3909
 148		1.4578e+001	11.2272		10.4187
 149		1.4677e+001	11.2981		10.4426
 150		1.4775e+001	11.3817		10.4680
 151		1.4874e+001	11.4653		10.4915
 152		1.4972e+001	11.5436		10.5134
 153		1.5070e+001	11.6126		10.5411
 154		1.5169e+001	11.6849		10.5646
 155		1.5268e+001	11.7844		10.5826
 156		1.5366e+001	11.8494		10.6076
 157		1.5464e+001	11.9344		10.6319
 158		1.5563e+001	12.0007		10.6522
 159		1.5662e+001	12.0942		10.6784
 160		1.5760e+001	12.1652		10.6941
 161		1.5858e+001	12.2535		10.7160
 162		1.5957e+001	12.3258		10.7410
 163		1.6055e+001	12.3988		10.7590
 164		1.6154e+001	12.4731		10.7872
 165		1.6253e+001	12.5567		10.8091
 166		1.6351e+001	12.6389		10.8243
 167		1.6450e+001	12.7258		10.8470
 168		1.6548e+001	12.8127		10.8662
 169		1.6647e+001	12.8764		10.8873
 170		1.6745e+001	12.9421		10.9072
 171		1.6843e+001	13.0184		10.9327
 172		1.6942e+001	13.0980		10.9460
 173		1.7041e+001	13.1763		10.9643
 174		1.7139e+001	13.2625		10.9952
 175		1.7238e+001	13.3408		11.0093
 176		1.7336e+001	13.4058		11.0269
 177		1.7435e+001	13.5067		11.0512
 178		1.7533e+001	13.5671		11.0707
 179		1.7631e+001	13.6473		11.0919
 180		1.7730e+001	13.7376		11.1040
 181		1.7828e+001	13.8125		11.1239
 182		1.7927e+001	13.8888		11.1423
 183		1.8026e+001	13.9790		11.1646
 184		1.8124e+001	14.0600		11.1818
 185		1.8223e+001	14.1303		11.2010
 186		1.8321e+001	14.1986		11.2205
 187		1.8419e+001	14.2829		11.2401
 188		1.8518e+001	14.3598		11.2538
 189		1.8616e+001	14.4461		11.2749
 190		1.8715e+001	14.5058		11.2894
 191		1.8814e+001	14.6106		11.3089
 192		1.8912e+001	14.6697		11.3238
 193		1.9011e+001	14.7526		11.3445
 194		1.9109e+001	14.8276		11.3637
 195		1.9208e+001	14.9092		11.3762
 196		1.9306e+001	14.9914		11.3965
 197		1.9404e+001	15.0737		11.4185
 198		1.9503e+001	15.1400		11.4259
 199		1.9602e+001	15.2263		11.4470
 200		1.9700e+001	15.2979		11.4662
 201		1.9799e+001	15.3736		11.4787
 202		1.9897e+001	15.4538		11.4971
 203		1.9996e+001	15.5315		11.5151
 204		2.0094e+001	15.6144		11.5241
 205		2.0192e+001	15.7020		11.5514
 206		2.0291e+001	15.7995		11.5620
 207		2.0390e+001	15.8492		11.5792
 208		2.0488e+001	15.9308		11.5925
 209		2.0587e+001	16.0184		11.6125
 210		2.0685e+001	16.0828		11.6285
 211		2.0784e+001	16.1617		11.6449
 212		2.0882e+001	16.2473		11.6610
 213		2.0980e+001	16.3349		11.6707
 214		2.1079e+001	16.3959		11.6919
 215		2.1177e+001	16.4941		11.7036
 216		2.1276e+001	16.5598		11.7208
 217		2.1375e+001	16.6487		11.7384
 218		2.1473e+001	16.7236		11.7517
 219		2.1572e+001	16.8026		11.7634
 220		2.1670e+001	16.8829		11.7810
 221		2.1769e+001	16.9691		11.7939
 222		2.1867e+001	17.0454		11.8119
 223		2.1965e+001	17.1197		11.8264
 224		2.2064e+001	17.1960		11.8409
 225		2.2163e+001	17.2743		11.8530
 226		2.2261e+001	17.3360		11.8679
 227		2.2360e+001	17.4302		11.8823
 228		2.2458e+001	17.5078		11.9003
 229		2.2557e+001	17.5894		11.9101
 230		2.2655e+001	17.6829		11.9265
 231		2.2753e+001	17.7473		11.9445
 232		2.2852e+001	17.8223		11.9504
 233		2.2951e+001	17.9191		11.9692
 234		2.3049e+001	17.9689		11.9833
 235		2.3148e+001	18.0498		11.9962
 236		2.3246e+001	18.1361		12.0075
 237		2.3345e+001	18.2250		12.0173
 238		2.3443e+001	18.2960		12.0376
 239		2.3541e+001	18.3630		12.0576
 240		2.3640e+001	18.4406		12.0646
 241		2.3738e+001	18.5255		12.0771
 242		2.3837e+001	18.6011		12.0916
 243		2.3936e+001	18.6801		12.1076
 244		2.4034e+001	18.7657		12.1229
 245		2.4133e+001	18.8433		12.1323
 246		2.4231e+001	18.9116		12.1440
 247		2.4329e+001	19.0018		12.1581
 248		2.4428e+001	19.0741		12.1706
 249		2.4526e+001	19.1637		12.1831
 250		2.4625e+001	19.2374		12.1980
 251		2.4724e+001	19.3143		12.2109
 252		2.4822e+001	19.3866		12.2222
 253		2.4921e+001	19.4828		12.2367
 254		2.5019e+001	19.5531		12.2461
 255		2.5118e+001	19.6274		12.2578
 256		2.5216e+001	19.6420		12.2664
 257		2.5314e+001	19.6812		12.2774
 258		2.5413e+001	19.6659		12.2797
 259		2.5512e+001	19.6414		12.2833
 260		2.5610e+001	19.6155		12.2821
 261		2.5709e+001	19.5989		12.2778
 262		2.5807e+001	19.5173		12.2786
 263		2.5906e+001	19.4742		12.2774
 264		2.6004e+001	19.4211		12.2750
 265		2.6102e+001	19.3621		12.2707
 266		2.6201e+001	19.2997		12.2727
 267		2.6299e+001	19.2281		12.2711
 268		2.6398e+001	19.1657		12.2590
 269		2.6497e+001	19.0914		12.2531
 270		2.6595e+001	19.0131		12.2520
 271		2.6694e+001	18.9435		12.2488
 272		2.6792e+001	18.8625		12.2406
 273		2.6890e+001	18.8048		12.2348
 274		2.6989e+001	18.7219		12.2348
 275		2.7087e+001	18.6343		12.2207
 276		2.7186e+001	18.5686		12.2203
 277		2.7285e+001	18.4903		12.2140
 278		2.7383e+001	18.4014		12.2082
 279		2.7482e+001	18.3371		12.1972
 280		2.7580e+001	18.2515		12.1913
 281		2.7679e+001	18.1885		12.1874
 282		2.7777e+001	18.1042		12.1784
 283		2.7875e+001	18.0127		12.1757
 284		2.7974e+001	17.9543		12.1690
 285		2.8073e+001	17.8727		12.1593
 286		2.8171e+001	17.7858		12.1530
 287		2.8270e+001	17.7115		12.1440
 288		2.8368e+001	17.6365		12.1378
 289		2.8467e+001	17.5668		12.1342
 290		2.8565e+001	17.4819		12.1174
 291		2.8663e+001	17.4090		12.1162
 292		2.8762e+001	17.3167		12.1069
 293		2.8860e+001	17.2464		12.0990
 294		2.8959e+001	17.1615		12.0885
 295		2.9058e+001	17.0998		12.0857
 296		2.9156e+001	17.0076		12.0760
 297		2.9255e+001	16.9260		12.0697
 298		2.9353e+001	16.8450		12.0607
 299		2.9451e+001	16.7628		12.0552
 300		2.9550e+001	16.6918		12.0415
 301		2.9648e+001	16.6142		12.0368
 302		2.9747e+001	16.5445		12.0196
 303		2.9846e+001	16.4636		12.0216
 304		2.9944e+001	16.3780		12.0083
 305		3.0043e+001	16.3037		12.0009
 306		3.0141e+001	16.2194		11.9903
 307		3.0240e+001	16.1365		11.9825
 308		3.0338e+001	16.0529		11.9750
 309		3.0436e+001	15.9819		11.9610
 310		3.0535e+001	15.8957		11.9539
 311		3.0634e+001	15.8327		11.9484
 312		3.0732e+001	15.7464		11.9375
 313		3.0831e+001	15.6754		11.9261
 314		3.0929e+001	15.5786		11.9179
 315		3.1028e+001	15.5029		11.9066
 316		3.1126e+001	15.4187		11.8960
 317		3.1224e+001	15.3543		11.8917
 318		3.1323e+001	15.2774		11.8819
 319		3.1422e+001	15.2031		11.8667
 320		3.1520e+001	15.1055		11.8597
 321		3.1619e+001	15.0478		11.8546
 322		3.1717e+001	14.9602		11.8409
 323		3.1816e+001	14.8767		11.8288
 324		3.1914e+001	14.8010		11.8182
 325		3.2013e+001	14.7227		11.8115
 326		3.2111e+001	14.6451		11.8022
 327		3.2209e+001	14.5682		11.7885
 328		3.2308e+001	14.4819		11.7814
 329		3.2407e+001	14.4169		11.7713
 330		3.2505e+001	14.3326		11.7591
 331		3.2603e+001	14.2497		11.7517
 332		3.2702e+001	14.1787		11.7364
 333		3.2801e+001	14.0932		11.7298
 334		3.2899e+001	14.0215		11.7138
 335		3.2998e+001	13.9213		11.7055
 336		3.3096e+001	13.8676		11.7044
 337		3.3194e+001	13.7847		11.6813
 338		3.3293e+001	13.6951		11.6743
 339		3.3392e+001	13.6274		11.6598
 340		3.3490e+001	13.5438		11.6496
 341		3.3589e+001	13.4795		11.6418
 342		3.3687e+001	13.3992		11.6281
 343		3.3785e+001	13.3289		11.6168
 344		3.3884e+001	13.2367		11.6031
 345		3.3983e+001	13.1531		11.5933
 346		3.4081e+001	13.0715		11.5827
 347		3.4179e+001	12.9806		11.5686
 348		3.4278e+001	12.9189		11.5565
 349		3.4377e+001	12.8406		11.5487
 350		3.4475e+001	12.7676		11.5350
 351		3.4574e+001	12.6860		11.5248
 352		3.4672e+001	12.5998		11.5115
 353		3.4770e+001	12.5301		11.5029
 354		3.4869e+001	12.4452		11.4849
 355		3.4968e+001	12.3709		11.4701
 356		3.5066e+001	12.2953		11.4642
 357		3.5164e+001	12.2210		11.4466
 358		3.5263e+001	12.1321		11.4376
 359		3.5361e+001	12.0551		11.4204
 360		3.5460e+001	11.9735		11.4083
 361		3.5559e+001	11.9032		11.3973
 362		3.5657e+001	11.8236		11.3832
 363		3.5755e+001	11.7493		11.3680
 364		3.5854e+001	11.6650		11.3574
 365		3.5953e+001	11.5801		11.3430
 366		3.6051e+001	11.4919		11.3308
 367		3.6150e+001	11.4255		11.3156
 368		3.6248e+001	11.3433		11.2995
 369		3.6346e+001	11.2776		11.2890
 370		3.6445e+001	11.1860		11.2765
 371		3.6544e+001	11.1117		11.2589
 372		3.6642e+001	11.0334		11.2503
 373		3.6740e+001	10.9598		11.2338
 374		3.6839e+001	10.8769		11.2205
 375		3.6938e+001	10.7900		11.2041
 376		3.7036e+001	10.7210		11.1857
 377		3.7135e+001	10.6447		11.1740
 378		3.7233e+001	10.5664		11.1623
 379		3.7331e+001	10.4868		11.1482
 380		3.7430e+001	10.4105		11.1267
 381		3.7529e+001	10.3242		11.1149
 382		3.7627e+001	10.2433		11.0969
 383		3.7725e+001	10.1723		11.0836
 384		3.7824e+001	10.0927		11.0680
 385		3.7922e+001	10.0283		11.0496
 386		3.8021e+001	9.9408		11.0379
 387		3.8120e+001	9.8605		11.0191
 388		3.8218e+001	9.7855		10.9980
 389		3.8316e+001	9.7006		10.9819
 390		3.8415e+001	9.6124		10.9694
 391		3.8514e+001	9.5493		10.9526
 392		3.8612e+001	9.4737		10.9381
 393		3.8711e+001	9.4001		10.9178
 394		3.8809e+001	9.3032		10.8990
 395		3.8907e+001	9.2183		10.8842
 396		3.9006e+001	9.1493		10.8662
 397		3.9105e+001	9.0670		10.8462
 398		3.9203e+001	8.9941		10.8294
 399		3.9301e+001	8.9105		10.8110
 400		3.9400e+001	8.8289		10.7918
 401		3.9499e+001	8.7599		10.7707
 402		3.9597e+001	8.6862		10.7555
 403		3.9696e+001	8.6000		10.7379
 404		3.9794e+001	8.5297		10.7140
 405		3.9892e+001	8.4487		10.7007
 406		3.9991e+001	8.3718		10.6792
 407		4.0090e+001	8.2961		10.6593
 408		4.0188e+001	8.2052		10.6428
 409		4.0286e+001	8.1230		10.6147
 410		4.0385e+001	8.0447		10.5971
 411		4.0483e+001	7.9638		10.5779
 412		4.0582e+001	7.8848		10.5556
 413		4.0681e+001	7.8218		10.5368
 414		4.0779e+001	7.7296		10.5130
 415		4.0877e+001	7.6646		10.4973
 416		4.0976e+001	7.5783		10.4711
 417		4.1075e+001	7.5007		10.4445
 418		4.1173e+001	7.4224		10.4246
 419		4.1272e+001	7.3474		10.4046
 420		4.1370e+001	7.2685		10.3815
 421		4.1468e+001	7.2075		10.3620
 422		4.1567e+001	7.1265		10.3323
 423		4.1666e+001	7.0383		10.3123
 424		4.1764e+001	6.9441		10.2896
 425		4.1862e+001	6.8731		10.2599
 426		4.1961e+001	6.7849		10.2376
 427		4.2060e+001	6.7099		10.2126
 428		4.2158e+001	6.6323		10.1840
 429		4.2257e+001	6.5613		10.1602
 430		4.2355e+001	6.4837		10.1324
 431		4.2453e+001	6.3987		10.1105
 432		4.2552e+001	6.3138		10.0780
 433		4.2651e+001	6.2455		10.0518
 434		4.2749e+001	6.1506		10.0197
 435		4.2847e+001	6.0902		9.9967
 436		4.2946e+001	6.0073		9.9658
 437		4.3044e+001	5.9337		9.9388
 438		4.3143e+001	5.8508		9.9083
 439		4.3242e+001	5.7758		9.8785
 440		4.3340e+001	5.6948		9.8516
 441		4.3438e+001	5.6152		9.8187
 442		4.3537e+001	5.5283		9.7815
 443		4.3636e+001	5.4587		9.7522
 444		4.3734e+001	5.3777		9.7194
 445		4.3833e+001	5.3048		9.6842
 446		4.3931e+001	5.2066		9.6587
 447		4.4029e+001	5.1316		9.6141
 448		4.4128e+001	5.0520		9.5797
 449		4.4227e+001	4.9843		9.5469
 450		4.4325e+001	4.8928		9.5171
 451		4.4423e+001	4.8185		9.4725
 452		4.4522e+001	4.7375		9.4424
 453		4.4621e+001	4.6579		9.3974
 454		4.4719e+001	4.5909		9.3607
 455		4.4818e+001	4.5073		9.3267
 456		4.4916e+001	4.4191		9.2797
 457		4.5014e+001	4.3461		9.2437
 458		4.5113e+001	4.2658		9.1925
 459		4.5212e+001	4.1935		9.1573
 460		4.5310e+001	4.1166		9.1131
 461		4.5408e+001	4.0449		9.0681
 462		4.5507e+001	3.9653		9.0227
 463		4.5605e+001	3.8678		8.9750
 464		4.5704e+001	3.7981		8.9296
 465		4.5803e+001	3.7265		8.8749
 466		4.5901e+001	3.6376		8.8354
 467		4.5999e+001	3.5759		8.7810
 468		4.6098e+001	3.4817		8.7345
 469		4.6197e+001	3.4014		8.6774
 470		4.6295e+001	3.3251		8.6250
 471		4.6394e+001	3.2488		8.5710
 472		4.6492e+001	3.1639		8.5147
 473		4.6590e+001	3.1121		8.4575
 474		4.6689e+001	3.0066		8.3973
 475		4.6788e+001	2.9257		8.3363
 476		4.6886e+001	2.8527		8.2776
 477		4.6984e+001	2.7824		8.2135
 478		4.7083e+001	2.6935		8.1482
 479		4.7182e+001	2.6225		8.0793
 480		4.7280e+001	2.5502		8.0148
 481		4.7379e+001	2.4786		7.9479
 482		4.7477e+001	2.3870		7.8736
 483		4.7575e+001	2.3061		7.8004
 484		4.7674e+001	2.2211		7.7281
 485		4.7773e+001	2.1409		7.6510
 486		4.7871e+001	2.0646		7.5673
 487		4.7969e+001	1.9969		7.4809
 488		4.8068e+001	1.9193		7.4015
 489		4.8166e+001	1.8470		7.3150
 490		4.8265e+001	1.7455		7.2208
 491		4.8364e+001	1.6765		7.1320
 492		4.8462e+001	1.5929		7.0369
 493		4.8560e+001	1.5246		6.9411
 494		4.8659e+001	1.4443		6.8355
 495		4.8758e+001	1.3494		6.7326
 496		4.8856e+001	1.2831		6.6200
 497		4.8955e+001	1.2108		6.5101
 498		4.9053e+001	1.1146		6.3939
 499		4.9151e+001	1.0495		6.2754
 500		4.9250e+001	0.9706		6.1541
 501		4.9349e+001	0.8963		6.0219
 502		4.9447e+001	0.8167		5.8909
 503		4.9545e+001	0.7377		5.7521
 504		4.9644e+001	0.6462		5.6085
 505		4.9743e+001	0.5699		5.4532
 506		4.9841e+001	0.4949		5.2956
 507		4.9940e+001	0.4213		5.1380
 508		5.0038e+001	0.3403		4.9635
 509		5.0136e+001	0.2488		4.7856
 510		5.0235e+001	0.1798		4.5943
 511		5.0334e+001	0.1081		4.4030
 512		5.0432e+001	0.0212		4.1961
 513		5.0531e+001	-0.0318		3.9732
 514		5.0629e+001	-0.1320		3.7451
 515		5.0727e+001	-0.1924		3.5011
 516		5.0826e+001	-0.2926		3.2406
 517		5.0925e+001	-0.3622		2.9722
 518		5.1023e+001	-0.4312		2.6805
 519		5.1121e+001	-0.5128		2.3699
 520		5.1220e+001	-0.6070		2.0437
 521		5.1319e+001	-0.6714		1.6991
 522		5.1417e+001	-0.7596		1.3447
